RRRRRRRRRRRRRRRRRRRRRRRRRRRRRRRRRRRRRRRRRRRRRRRRRRRRRRRRRRRRRRRRRRRRRRRRRRRRRRRR
  280062       0       3                                                        
AAAAAAAAAAAAAAAAAAAAAAAAAAAAAAAAAAAAAAAAAAAAAAAAAAAAAAAAAAAAAAAAAAAAAAAAAAAAAAAA
      80       1                                                                
Inst User L.C.   Date     Time                                                  
D10 Marti Bach22-Nov-11 07:37:27                                                
AAAAAAAAAAAAAAAAAAAAAAAAAAAAAAAAAAAAAAAAAAAAAAAAAAAAAAAAAAAAAAAAAAAAAAAAAAAAAAAA
      80       1                                                                
Title                                                                   Scantype
YMno3 thin 1000A film Substrate SrTiO3                                          
IIIIIIIIIIIIIIIIIIIIIIIIIIIIIIIIIIIIIIIIIIIIIIIIIIIIIIIIIIIIIIIIIIIIIIIIIIIIIIII
      31       4                                                                
   nvers   ntype   kctrl   manip   nbang   nkmes  npdone   jcode   ipara   ianal
   imode    itgv  iregul   ivolt    naxe npstart  ilast1     isa  flgkif      ih
      ik   nbsqs  nb_det  nbdata icdesc1 icdesc2 icdesc3 icdesc4 icdesc5 icdesc6
 icdesc7                                                                        
       3       1       7       0       5      13      13       0       1       1
       0       0       1       0       1       0       0       0       1       0
       0       0       1       1       8       2       3       4      -1       0
       0                                                                        
FFFFFFFFFFFFFFFFFFFFFFFFFFFFFFFFFFFFFFFFFFFFFFFFFFFFFFFFFFFFFFFFFFFFFFFFFFFFFFFF
      50      10                                                                
        H (Hmin)        K (Kmin)        L (Lmin)             phi             chi
           omega  2theta (gamma)             psi         ub(1,1)         ub(1,2)
         ub(1,3)         ub(2,1)         ub(2,2)         ub(2,3)         ub(3,1)
         ub(3,2)         ub(3,3)      wavelength  dmonochromator       danalyser
          energy            Hmax            Kmax            Lmax          DeltaH
          DeltaK          DeltaL     Deltaenergy         Ki (Kf)       Ddetector
        2the_ana         ome_ana        samptabl       omega_mon        attenuat
      scan start       scan step      scan width          preset    add.bkg.step
   add.bkg.width  add.bkg.preset  couplingfactor         (spare)         (spare)
       Temp-s.pt      Temp-Regul     Temp-sample       Voltmeter       Mag.field
  0.48500001E+00 -0.48500001E+00  0.51600003E+00  0.56680004E+02  0.37452010E+02
  0.15032060E+02  0.30064113E+02  0.00000000E+00 -0.36058101E-01 -0.25299221E+00
 -0.18069000E-01  0.25333130E+00 -0.36818400E-01  0.99692000E-02 -0.12441700E-01
 -0.16464500E-01  0.25535440E+00  0.23590000E+01  0.33527000E+01  0.33527000E+01
  0.00000000E+00  0.51600003E+00 -0.51600003E+00  0.51600003E+00  0.00000000E+00
  0.00000000E+00  0.00000000E+00  0.00000000E+00  0.00000000E+00  0.43700000E+03
  0.41140000E+02  0.20590000E+02  0.41200000E+02  0.20600000E+02  0.00000000E+00
  0.30561000E+02  0.10000000E+00  0.20000000E+01  0.30000000E+06  0.00000000E+00
  0.00000000E+00  0.00000000E+00  0.00000000E+00  0.00000000E+00  0.00000000E+00
  0.47500000E+02  0.47499000E+02  0.47499000E+02  0.85000000E+01  0.00000000E+00
SSSSSSSSSSSSSSSSSSSSSSSSSSSSSSSSSSSSSSSSSSSSSSSSSSSSSSSSSSSSSSSSSSSSSSSSSSSSSSSS
       1       0       1  280062                                                
FFFFFFFFFFFFFFFFFFFFFFFFFFFFFFFFFFFFFFFFFFFFFFFFFFFFFFFFFFFFFFFFFFFFFFFFFFFFFFFF
     104                                                                        
  0.15000000E+02  0.30000000E+06  0.27242000E+05  0.30060000E+02  0.15032000E+02
  0.37455001E+02  0.56680000E+02  0.47498001E+02  0.27000000E+02  0.30000000E+06
  0.27243000E+05  0.30150000E+02  0.15083000E+02  0.37307000E+02  0.56662000E+02
  0.47498001E+02  0.22000000E+02  0.30000000E+06  0.27275000E+05  0.30280000E+02
  0.15135000E+02  0.37162000E+02  0.56645000E+02  0.47499000E+02  0.19000000E+02
  0.30000000E+06  0.27237000E+05  0.30410000E+02  0.15189000E+02  0.37021000E+02
  0.56626000E+02  0.47496000E+02  0.19000000E+02  0.30000000E+06  0.27224000E+05
  0.30450000E+02  0.15242000E+02  0.36874000E+02  0.56608001E+02  0.47500000E+02
  0.30000000E+01  0.30000000E+06  0.27262000E+05  0.30590000E+02  0.15296000E+02
  0.36737000E+02  0.56590000E+02  0.47500000E+02  0.30000000E+01  0.30000000E+06
  0.27166000E+05  0.30720000E+02  0.15351000E+02  0.36596000E+02  0.56572000E+02
  0.47500000E+02  0.20000000E+01  0.30000000E+06  0.27239000E+05  0.30820000E+02
  0.15401000E+02  0.36456001E+02  0.56554000E+02  0.47502000E+02  0.10000000E+01
  0.30000000E+06  0.27245000E+05  0.30890000E+02  0.15451000E+02  0.36318000E+02
  0.56540000E+02  0.47503000E+02  0.30000000E+01  0.30000000E+06  0.27213000E+05
  0.31000000E+02  0.15506000E+02  0.36180000E+02  0.56522000E+02  0.47501000E+02
  0.40000000E+01  0.30000000E+06  0.27259000E+05  0.31090000E+02  0.15558000E+02
  0.36043000E+02  0.56504001E+02  0.47502000E+02  0.30000000E+01  0.30000000E+06
  0.27321000E+05  0.31250000E+02  0.15613000E+02  0.35908000E+02  0.56487000E+02
  0.47501000E+02  0.30000000E+01  0.30000000E+06  0.27174000E+05  0.31310000E+02
  0.15667000E+02  0.35772000E+02  0.56473000E+02  0.47501000E+02                
